
clear all;
close all;
clc;

N_fx=4096;          % specify number of data points in spatial frequency domain
dx_max=0.001;       % specify upper limit of data resolution

%% Import spectrum data from text file
% text file format:
% first column: wavelength (nm)
% second column: spectral intensity (linear scale)
%temp=importdata('D:\100820_test output.txt');  % Enter the file path
temp=importdata('D:\101103_OO (0.03 -0.03)(inter).txt');  % Enter the file path
if isfield(temp,'data')
    temp=temp.data;
end
lambda=[
530.69
530.9
531.12
531.33
531.54
531.76
531.97
532.18
532.4
532.61
532.83
533.04
533.25
533.47
533.68
533.89
534.11
534.32
534.53
534.75
534.96
535.18
535.39
535.6
535.82
536.03
536.24
536.46
536.67
536.88
537.1
537.31
537.52
537.74
537.95
538.16
538.38
538.59
538.8
539.02
539.23
539.44
539.66
539.87
540.08
540.3
540.51
540.72
540.94
541.15
541.36
541.58
541.79
542
542.22
542.43
542.64
542.85
543.07
543.28
543.49
543.71
543.92
544.13
544.35
544.56
544.77
544.98
545.2
545.41
545.62
545.84
546.05
546.26
546.47
546.69
546.9
547.11
547.33
547.54
547.75
547.96
548.18
548.39
548.6
548.82
549.03
549.24
549.45
549.67
549.88
550.09
550.3
550.52
550.73
550.94
551.15
551.37
551.58
551.79
552
552.22
552.43
552.64
552.85
553.07
553.28
553.49
553.7
553.91
554.13
554.34
554.55
554.76
554.98
555.19
555.4
555.61
555.83
556.04
556.25
556.46
556.67
556.89
557.1
557.31
557.52
557.73
557.95
558.16
558.37
558.58
558.79
559.01
559.22
559.43
559.64
559.85
560.07
560.28
560.49
560.7
560.91
561.13
561.34
561.55
561.76
561.97
562.18
562.4
562.61
562.82
563.03
563.24
563.46
563.67
563.88
564.09
564.3
564.51
564.73
564.94
565.15
565.36
565.57
565.78
565.99
566.21
566.42
566.63
566.84
567.05
567.26
567.47
567.69
567.9
568.11
568.32
568.53
568.74
568.95
569.17
569.38
569.59
569.8
570.01
570.22
570.43
570.64
570.86
571.07
571.28
571.49
571.7
571.91
572.12
572.33
572.54
572.76
572.97
573.18
573.39
573.6
573.81
574.02
574.23
574.44
574.66
574.87
575.08
575.29
575.5
575.71
575.92
576.13
576.34
576.55
576.76
576.97
577.19
577.4
577.61
577.82
578.03
578.24
578.45
578.66
578.87
579.08
579.29
579.5
579.71
579.92
580.13
580.35
580.56
580.77
580.98
581.19
581.4
581.61
581.82
582.03
582.24
582.45
582.66
582.87
583.08
583.29
583.5
583.71
583.92
584.13
584.34
584.55
584.76
584.97
585.18
585.39
585.6
585.81
586.03
586.24
586.45
586.66
586.87
587.08
587.29
587.5
587.71
587.92
588.13
588.34
588.55
588.76
588.97
589.18
589.39
589.6
589.81
590.02
590.23
590.44
590.65
590.86
591.07
591.27
591.48
591.69
591.9
592.11
592.32
592.53
592.74
592.95
593.16
593.37
593.58
593.79
594
594.21
594.42
594.63
594.84
595.05
595.26
595.47
595.68
595.89
596.1
596.31
596.52
596.73
596.93
597.14
597.35
597.56
597.77
597.98
598.19
598.4
598.61
598.82
599.03
599.24
599.45
599.66
599.87
600.07
600.28
600.49
600.7
600.91
601.12
601.33
601.54
601.75
601.96
602.17
602.37
602.58
602.79
603
603.21
603.42
603.63
603.84
604.05
604.26
604.46
604.67
604.88
605.09
605.3
605.51
605.72
605.93
606.14
606.34
606.55
606.76
606.97
607.18
607.39
607.6
607.81
608.01
608.22
608.43
608.64
608.85
609.06
609.27
609.47
609.68
609.89
610.1
610.31
610.52
610.73
610.93
611.14
611.35
611.56
611.77
611.98
612.18
612.39
612.6
612.81
613.02
613.23
613.43
613.64
613.85
614.06
614.27
614.48
614.68
614.89
615.1
615.31
615.52
615.72
615.93
616.14
616.35
616.56
616.77
616.97
617.18
617.39
617.6
617.81
618.01
618.22
618.43
618.64
618.85
619.05
619.26
619.47
619.68
619.88
620.09
620.3
620.51
620.72
620.92
621.13
621.34
621.55
621.75
621.96
622.17
622.38
622.59
622.79
623
623.21
623.42
623.62
623.83
624.04
624.25
624.45
624.66
624.87
625.08
625.28
625.49
625.7
625.91
626.11
626.32
626.53
626.74
626.94
627.15
627.36
627.56
627.77
627.98
628.19
628.39
628.6
628.81
629.02
629.22
629.43
629.64
629.84
630.05
630.26
630.47
630.67
630.88
631.09
631.29
631.5
631.71
631.92
632.12
632.33
632.54
632.74
632.95
633.16
633.36
633.57
633.78
633.98
634.19
634.4
634.6
634.81
635.02
635.23
635.43
635.64
635.85
636.05
636.26
636.47
636.67
636.88
637.09
637.29
637.5
637.71
637.91
638.12
638.33
638.53
638.74
638.94
639.15
639.36
639.56
639.77
639.98
640.18
640.39
640.6
640.8
641.01
641.22
641.42
641.63
641.83
642.04
642.25
642.45
642.66
642.87
643.07
643.28
643.48
643.69
643.9
644.1
644.31
644.52
644.72
644.93
645.13
645.34
645.55
645.75
645.96
646.16
646.37
646.58
646.78
646.99
647.19
647.4
647.61
647.81
648.02
648.22
648.43
648.63
648.84
649.05
649.25
649.46
649.66
649.87
650.07
650.28
650.49
650.69
650.9
651.1
651.31
651.51
651.72
651.93
652.13
652.34
652.54
652.75
652.95
653.16
653.36
653.57
653.78
653.98
654.19
654.39
654.6
654.8
655.01
655.21
655.42
655.62
655.83
656.03
656.24
656.44
656.65
656.86
657.06
657.27
657.47
657.68
657.88
658.09
658.29
658.5
658.7
658.91
659.11
659.32
659.52
659.73
659.93
660.14
660.34
660.55
660.75
660.96
661.16
661.37
661.57
661.78
661.98
662.19
662.39
662.6
662.8
663.01
663.21
663.42
663.62
663.82
664.03
664.23
664.44
664.64
664.85
665.05
665.26
665.46
665.67
665.87
666.08
666.28
666.49
666.69
666.89
667.1
667.3
667.51
667.71
667.92
668.12
668.33
668.53
668.73
668.94
669.14
669.35
669.55
669.76
669.96
670.16
670.37
670.57
670.78
670.98
671.19
671.39
671.59
671.8
672
672.21
672.41
672.61
672.82
673.02
673.23
673.43
673.64
673.84
674.04
674.25
674.45
674.66
674.86
675.06
675.27
675.47
675.67
675.88
676.08
676.29
676.49
676.69
676.9
677.1
677.31
677.51
677.71
677.92
678.12
678.32
678.53
678.73
678.93
679.14
679.34
679.55
679.75
679.95
680.16
680.36
680.56
680.77
680.97
681.17
681.38
681.58
681.78
681.99
682.19
682.39
682.6
682.8
683
683.21
683.41
683.61
683.82
684.02
684.22
684.43
684.63
684.83
685.04
685.24
685.44
685.65
685.85
686.05
686.26
686.46
686.66
686.87
687.07
687.27
687.47
687.68
687.88
688.08
688.29
688.49
688.69
688.9
689.1
689.3
689.5
689.71
689.91
690.11
690.32
690.52
690.72
690.92
691.13
691.33
691.53
691.73
691.94
692.14
692.34
692.55
692.75
692.95
693.15
693.36
693.56
693.76
693.96
694.17
694.37
694.57
694.77
694.98
695.18
695.38
695.58
695.79
695.99
696.19
696.39
696.6
696.8
697
697.2
697.4
697.61
697.81
698.01
698.21
698.42
698.62
698.82
699.02
699.22
699.43
699.63
699.83
700.03
700.24
700.44
700.64
700.84
701.04
701.25
701.45
701.65
701.85
702.05
702.26
702.46
702.66
702.86
703.06
703.27
703.47
703.67
703.87
704.07
704.27
704.48
704.68
704.88
705.08
705.28
705.48
705.69
705.89
706.09
706.29
706.49
706.69
706.9
707.1
707.3
707.5
707.7
707.9
708.11
708.31
708.51
708.71
708.91
709.11
709.31
709.52
709.72
709.92
710.12
710.32
710.52
710.72
710.92
711.13
711.33
711.53
711.73
711.93
712.13
712.33
712.53
712.74
712.94
713.14
713.34
713.54
713.74
713.94
714.14
714.34
714.55
714.75
714.95
715.15
715.35
715.55
715.75
715.95
716.15
716.35
716.56
716.76
716.96
717.16
717.36
717.56
717.76
717.96
718.16
718.36
718.56
718.76
718.96
719.17
719.37
719.57
719.77
719.97
720.17
720.37
720.57
720.77
720.97
721.17
721.37
721.57
721.77
721.97
722.17
722.37
722.57
722.77
722.98
723.18
723.38
723.58
723.78
723.98
724.18
724.38
724.58
724.78
724.98
725.18
725.38
725.58
725.78
725.98
726.18
726.38
726.58
726.78
726.98
727.18
727.38
727.58
727.78
727.98
728.18
728.38
728.58
728.78
728.98
729.18
729.38
729.58
729.78
729.98
730.18
730.38
730.58
730.78
730.98
731.18
731.38
731.58
731.78
731.98
732.18
732.38
732.58
732.78
732.98
733.18
733.37
733.57
733.77
733.97
734.17
734.37
734.57
734.77
734.97
735.17
735.37
735.57
735.77
735.97
736.17
736.37
736.57
736.77
736.97
737.16
737.36
737.56
737.76
737.96
738.16
738.36
738.56
738.76
738.96
739.16
739.36
739.56
739.75
739.95
740.15
740.35
740.55
740.75
740.95
741.15
741.35
741.55
741.74
741.94
742.14
742.34
742.54
742.74
742.94
743.14
743.34
743.53
743.73
743.93
744.13
744.33
744.53
744.73
744.93
745.13
745.32
745.52
745.72
745.92
746.12
746.32
746.52
746.71
746.91
747.11
747.31
747.51
747.71
747.91
748.1
748.3
748.5
748.7
748.9
749.1
749.29
749.49
749.69
749.89
750.09
750.29
750.48
750.68
750.88
751.08
751.28
751.48
751.67
751.87
752.07
752.27
752.47
752.67
752.86
753.06
753.26
753.46
753.66
753.85
754.05
754.25
754.45
754.65
754.84
755.04
755.24
755.44
755.64
755.83
756.03
756.23
756.43
756.62
756.82
757.02
757.22
757.42
757.61
757.81
758.01
758.21
758.4
758.6
758.8
759
759.2
759.39
759.59
759.79
759.99
760.18
760.38
760.58
760.78
760.97
761.17
761.37
761.57
761.76
761.96
762.16
762.36
762.55
762.75
762.95
763.14
763.34
763.54
763.74
763.93
764.13
764.33
764.53
764.72
764.92
765.12
765.31
765.51
765.71
765.91
766.1
766.3
766.5
766.69
766.89
767.09
767.29
767.48
767.68
767.88
768.07
768.27
768.47
768.66
768.86
769.06
769.25
769.45
769.65
769.84
770.04
770.24
770.44
770.63
770.83
771.03
771.22
771.42
771.62
771.81
772.01
772.21
772.4
772.6
772.8
772.99
773.19
773.38
773.58
773.78
773.97
774.17
774.37
774.56
774.76
774.96
775.15
775.35
775.55
775.74
775.94
776.13
776.33
776.53
776.72
776.92
777.12
777.31
777.51
777.7
777.9
778.1
778.29
778.49
778.69
778.88
779.08
779.27
779.47
779.67
779.86
780.06
780.25
780.45
780.65
780.84
781.04
781.23
781.43
781.63
781.82
782.02
782.21
782.41
782.6
782.8
783
783.19
783.39
783.58
783.78
783.97
784.17
784.37
784.56
784.76
784.95
785.15
785.34
785.54
785.74
785.93
786.13
786.32
786.52
786.71
786.91
787.1
787.3
787.49
787.69
787.89
788.08
788.28
788.47
788.67
788.86
789.06
789.25
789.45
789.64
789.84
790.03
790.23
790.42
790.62
790.81
791.01
791.2
791.4
791.59
791.79
791.99
792.18
792.38
792.57
792.77
792.96
793.16
793.35
793.55
793.74
793.93
794.13
794.32
794.52
794.71
794.91
795.1
795.3
795.49
795.69
795.88
796.08
796.27
796.47
796.66
796.86
797.05
797.25
797.44
797.64
797.83
798.02
798.22
798.41
798.61
798.8
799
799.19
799.39
799.58
799.78
799.97
800.16
800.36
800.55
800.75
800.94
801.14
801.33
801.52
801.72
801.91
802.11
802.3
802.5
802.69
802.88
803.08
803.27
803.47
803.66
803.86
804.05
804.24
804.44
804.63
804.83
805.02
805.21
805.41
805.6
805.8
805.99
806.18
806.38
806.57
806.77
806.96
807.15
807.35
807.54
807.73
807.93
808.12
808.32
808.51
808.7
808.9
809.09
809.28
809.48
809.67
809.87
810.06
810.25
810.45
810.64
810.83
811.03
811.22
811.41
811.61
811.8
811.99
812.19
812.38
812.57
812.77
812.96
813.15
813.35
813.54
813.73
813.93
814.12
814.31
814.51
814.7
814.89
815.09
815.28
815.47
815.67
815.86
816.05
816.25
816.44
816.63
816.83
817.02
817.21
817.41
817.6
817.79
817.98
818.18
818.37
818.56
818.76
818.95
819.14
819.33
819.53
819.72
819.91
820.11
820.3
820.49
820.68
820.88
821.07
821.26
821.46
821.65
821.84
822.03
822.23
822.42
822.61
822.8
823
823.19
823.38
823.57
823.77
823.96
824.15
824.34
824.54
824.73
824.92
825.11
825.31
825.5
825.69
825.88
826.08
826.27
826.46
826.65
826.84
827.04
827.23
827.42
827.61
827.81
828
828.19
828.38
828.57
828.77
828.96
829.15
829.34
829.53
829.73
829.92
830.11
830.3
830.49
830.69
830.88
831.07
831.26
831.45
831.65
831.84
832.03
832.22
832.41
832.61
832.8
832.99
833.18
833.37
833.56
833.76
833.95
834.14
834.33
834.52
834.71
834.91
835.1
835.29
835.48
835.67
835.86
836.05
836.25
836.44
836.63
836.82
837.01
837.2
837.39
837.59
837.78
837.97
838.16
838.35
838.54
838.73
838.93
839.12
839.31
839.5
839.69
839.88
840.07
840.26
840.46
840.65
840.84
841.03
841.22
841.41
841.6
841.79
841.98
842.17
842.37
842.56
842.75
842.94
843.13
843.32
843.51
843.7
843.89
844.08
844.27
844.47
844.66
844.85
845.04
845.23
845.42
845.61
845.8
845.99
846.18
846.37
846.56
846.75
846.95
847.14
847.33
847.52
847.71
847.9
848.09
848.28
848.47
848.66
848.85
849.04
849.23
849.42
849.61
849.8
849.99
850.18
850.37
850.56
850.75
850.94
851.13
851.32
851.52
851.71
851.9
852.09
852.28
852.47
852.66
852.85
853.04
853.23
853.42
853.61
853.8
853.99
854.18
854.37
854.56
854.75
854.94
855.13
855.32
855.51
855.7
855.89
856.08
856.27
856.46
856.65
856.84
857.02
857.21
857.4
857.59
857.78
857.97
858.16
858.35
858.54
858.73
858.92
859.11
859.3
859.49
859.68
859.87
860.06
860.25
860.44
860.63
860.82
861.01
861.2
861.39
861.57
861.76
861.95
862.14
862.33
862.52
862.71
862.9
863.09
863.28
863.47
863.66
863.85
864.04
864.22
864.41
864.6
864.79
864.98
865.17
865.36
865.55
865.74
865.93
866.12
866.3
866.49
866.68
866.87
867.06
867.25
867.44
867.63
867.82
868
868.19
868.38
868.57
868.76
868.95
869.14
869.33
869.51
869.7
869.89
870.08
870.27
870.46
870.65
870.84
871.02
871.21
871.4
871.59
871.78
871.97
872.16
872.34
872.53
872.72
872.91
873.1
873.29
873.47
873.66
873.85
874.04
874.23
874.42
874.6
874.79
874.98
875.17
875.36
875.55
875.73
875.92
876.11
876.3
876.49
876.67
876.86
877.05
877.24
877.43
877.62
877.8
877.99
878.18
878.37
878.56
878.74
878.93
879.12
879.31
879.49
879.68
879.87
880.06
880.25
880.43
880.62
880.81
881
881.18
881.37
881.56
881.75
881.94
882.12
882.31
882.5
882.69
882.87
883.06
883.25
883.44
883.62
883.81
884
884.19
884.37
884.56
884.75
884.94
885.12
885.31
885.5
885.69
885.87
886.06
886.25
886.43
886.62
886.81
887
887.18
887.37
887.56
887.75
887.93
888.12
888.31
888.49
888.68
888.87
889.06
889.24
889.43
889.62
889.8
889.99
890.18
890.36
890.55
890.74
890.92
891.11
891.3
891.49
891.67
891.86
892.05
892.23
892.42
892.61
892.79
892.98
893.17
893.35
893.54
893.73
893.91
894.1
894.29
894.47
894.66
894.85
895.03
895.22
895.41
895.59
895.78
895.97
896.15
896.34
896.52
896.71
896.9
897.08
897.27
897.46
897.64
897.83
898.02
898.2
898.39
898.57
898.76
898.95
899.13
899.32
899.5
899.69
899.88
900.06
900.25
900.44
900.62
900.81
900.99
901.18
901.37
901.55
901.74
901.92
902.11
902.3
902.48
902.67
902.85
903.04
903.22
903.41
903.6
903.78
903.97
904.15
904.34
904.53
904.71
904.9
905.08
905.27
905.45
905.64
905.82
906.01
906.2
906.38
906.57
906.75
906.94
907.12
907.31
907.49
907.68
907.87
908.05
908.24
908.42
908.61
908.79
908.98
909.16
909.35
909.53
909.72
909.9
910.09
910.27
910.46
910.65
910.83
911.02
911.2
911.39
911.57
911.76
911.94
912.13
912.31
912.5
912.68
912.87
913.05
913.24
913.42
913.61
913.79
913.98
914.16
914.35
914.53
914.72
914.9
915.08
915.27
915.45
915.64
915.82
916.01
916.19
916.38
916.56
916.75
916.93
917.12
917.3
917.49
917.67
917.85
918.04
918.22
918.41
918.59
918.78
918.96
919.15
919.33
919.52
919.7
919.88
920.07
920.25
920.44
920.62
920.81
920.99
921.17
921.36
921.54
921.73
921.91
922.1
922.28
922.46
922.65
922.83
923.02
923.2
923.38
923.57
923.75
923.94
924.12
924.3
924.49
924.67
924.86
925.04
925.22
925.41
925.59
925.78
925.96
926.14
926.33
926.51
926.69
926.88
927.06
927.25
927.43
927.61
927.8
927.98
928.16
928.35
928.53
928.71
928.9
929.08
929.27
929.45
929.63
929.82
930
930.18
930.37
930.55
930.73
930.92
931.1
931.28
931.47
931.65
931.83
932.02
932.2
932.38
932.57
932.75
932.93
933.12
933.3
933.48
933.67
933.85
934.03
934.22
934.4
934.58
934.76
934.95
935.13
935.31
935.5
935.68
935.86
936.05
936.23
936.41
936.59
936.78
936.96
937.14
937.33
937.51
937.69
937.87
938.06
938.24
938.42
938.61
938.79
938.97
939.15
939.34
939.52
939.7
939.88
940.07
940.25
940.43
940.61
940.8
940.98
941.16
941.34
941.53
941.71
941.89
942.07
942.26
942.44
942.62
942.8
942.99
943.17
943.35
943.53
943.71
943.9
944.08
944.26
944.44
944.63
944.81
944.99
945.17
945.35
945.54
945.72
945.9
946.08
946.26
946.45
946.63
946.81
946.99
947.17
947.36
947.54
947.72
947.9
948.08
948.27
948.45
948.63
948.81
948.99
949.17
949.36
949.54
949.72
949.9
950.08
950.26
950.45
950.63
950.81
950.99
951.17
951.35
951.54
951.72
951.9
952.08
952.26
952.44
952.62
952.81
952.99
953.17
953.35
953.53
953.71
953.89
954.08
954.26
954.44
954.62
954.8
954.98
955.16
955.34
955.53
955.71
955.89
956.07
956.25
956.43
956.61
956.79
956.97
957.16
957.34
957.52
957.7
957.88
958.06
958.24
958.42
958.6
958.78
958.97
959.15
959.33
959.51
959.69
959.87
960.05
960.23
960.41
960.59
960.77
960.95
961.13
961.32
961.5
961.68
961.86
962.04
962.22
962.4
962.58
962.76
962.94
963.12
963.3
963.48
963.66
963.84
964.02
964.2
964.38
964.56
964.74
964.92
965.11
965.29
965.47
965.65
965.83
966.01
966.19
966.37
966.55
966.73
966.91
967.09
967.27
967.45
967.63
967.81
967.99
968.17
968.35
968.53
968.71
968.89
969.07
969.25
969.43
969.61
969.79
969.97
970.15
970.33
970.51
970.69
970.87
971.05
971.23
971.41
971.59
971.77
971.94
972.12
972.3
972.48
972.66
972.84
973.02
973.2
973.38
973.56
973.74
973.92
974.1
974.28
974.46
974.64
974.82
975
975.18
975.36
975.53
975.71
975.89
976.07
976.25
976.43
976.61
976.79
976.97
977.15
977.33
977.51
977.69
977.87
978.04
978.22
978.4
978.58
978.76
978.94
979.12
979.3
979.48
979.66
979.83
980.01
980.19
980.37
980.55
980.73
980.91
981.09
981.27
981.44
981.62
981.8
981.98
982.16
982.34
982.52
982.7
982.87
983.05
983.23
983.41
983.59
983.77
983.95
984.12
984.3
984.48
984.66
984.84
985.02
985.2
985.37
985.55
985.73
985.91
986.09
986.27
986.44
986.62
986.8
986.98
987.16
987.34
987.51
987.69
987.87
988.05
988.23
988.4
988.58
988.76
988.94
989.12
989.3
989.47
989.65
989.83
990.01
990.19
990.36
990.54
990.72
990.9
991.07
991.25
991.43
991.61
991.79
991.96
992.14
992.32
992.5
992.68
992.85
993.03
993.21
993.39
993.56
993.74
993.92
994.1
994.27
994.45
994.63
994.81
994.98
995.16
995.34
995.52
995.69
995.87
996.05
996.23
996.4
996.58
996.76
996.94
997.11
997.29
997.47
997.65
997.82
998
998.18
998.35
998.53
998.71
998.89
999.06
999.24
999.42
999.59
999.77
999.95
1000.13
1000.3
1000.48
1000.66
1000.83
1001.01
1001.19
1001.36
1001.54
1001.72
1001.9
1002.07
1002.25
1002.43
1002.6
1002.78
1002.96
1003.13
1003.31
1003.49
1003.66
1003.84
1004.02
1004.19
1004.37
1004.55
1004.72
1004.9
1005.08
1005.25
1005.43
1005.61
1005.78
1005.96
1006.14
1006.31
1006.49
1006.66
1006.84
1007.02
1007.19
1007.37
1007.55
1007.72
1007.9
1008.08
1008.25
1008.43
1008.6
1008.78
1008.96
1009.13
1009.31
1009.49
1009.66
1009.84
1010.01
1010.19
1010.37
1010.54
1010.72
1010.89
1011.07
